#Date: 22-Nov-2017 01:07:48
#
#Memory Allocation:
#	Parameter memory: 276 bytes. p -> 0xb6fbc000
#	Lookup table memory: 2000 bytes. l -> 0xb6fbb000
#	Data memory: 1200 bytes. s -> 0xb6fba000
#
#Parameters:
#	Frq = 1000 (Hz)
#
#Filter Coefficients (N = 1):
#	b[0] : 0.01850891	a[0] : 1.00000000
#	b[1] : 0.01850891	a[1] : -0.96299744
#
# frame	emg_raw
26820	797.884
26821	826.019
26822	787.773
26823	818.985
26824	822.942
26825	833.053
26826	853.714
26827	806.677
26828	825.140
26829	805.358
26830	801.401
26831	830.855
26832	799.643
26833	833.053
26834	815.908
26835	832.174
26836	837.009
26837	797.884
26838	827.778
26839	787.773
26840	808.875
26841	809.314
26842	787.334
26843	815.469
26844	787.773
26845	809.754
26846	817.667
26847	787.334
26848	815.469
26849	771.508
26850	800.082
26851	815.908
26852	801.401
26853	836.570
26854	773.266
26855	834.811
26856	799.643
26857	836.570
26858	844.043
26859	843.603
26860	860.748
26861	808.435
26862	833.053
26863	808.875
26864	808.435
26865	821.183
26866	780.300
26867	811.952
26868	801.841
26869	818.985
26870	827.338
26871	787.334
26872	821.623
26873	787.773
26874	808.875
26875	817.667
26876	787.334
26877	815.469
26878	773.706
26879	793.488
26880	801.841
26881	775.025
26882	807.556
26883	780.740
26884	829.976
26885	847.560
26886	836.570
26887	845.801
26888	798.324
26889	832.174
26890	833.492
26891	822.502
26892	839.207
26893	785.575
26894	810.193
26895	801.841
26896	806.677
26897	822.063
26898	778.981
26899	801.401
26900	801.841
26901	815.469
26902	837.009
26903	789.971
26904	811.073
26905	787.773
26906	804.918
26907	833.492
26908	801.401
26909	833.053
26910	808.875
26911	822.063
26912	819.425
26913	780.300
26914	816.348
26915	847.560
26916	808.435
26917	858.110
26918	840.087
26919	815.908
26920	815.469
26921	775.025
26922	822.063
26923	787.334
26924	808.875
26925	806.237
26926	775.904
26927	818.985
26928	787.334
26929	808.875
26930	804.918
26931	778.981
26932	833.053
26933	815.469
26934	829.976
26935	829.976
26936	794.368
26937	839.647
26938	811.952
26939	819.425
26940	828.657
26941	794.807
26942	847.999
26943	826.019
26944	829.976
26945	833.053
26946	786.894
26947	827.338
26948	801.401
26949	791.290
26950	801.401
26951	769.750
26952	816.787
26953	806.677
26954	787.773
26955	813.710
26956	762.716
26957	818.985
26958	801.401
26959	808.875
26960	812.831
26961	779.421
26962	826.459
26963	806.677
26964	787.773
26965	815.908
26966	783.817
26967	829.976
26968	822.502
26969	787.773
26970	817.227
26971	794.368
26972	829.976
26973	838.768
26974	806.677
26975	854.594
26976	822.502
26977	815.908
26978	829.536
26979	792.609
26980	844.043
26981	838.768
26982	805.358
26983	824.261
26984	780.300
26985	801.841
26986	785.136
26987	764.914
26988	840.087
26989	836.570
26990	829.976
26991	815.469
26992	771.508
26993	812.831
26994	801.401
26995	787.773
26996	822.502
26997	808.435
26998	817.227
26999	827.778
27000	790.851
27001	835.251
27002	815.469
27003	791.290
27004	826.019
27005	794.368
27006	819.425
27007	811.952
27008	773.706
27009	821.623
27010	801.401
27011	801.841
27012	815.469
27013	782.059
27014	827.778
27015	818.985
27016	795.686
27017	836.570
27018	801.401
27019	815.908
27020	814.589
27021	783.817
27022	830.855
27023	812.831
27024	794.807
27025	820.744
27026	792.609
27027	823.821
27028	815.908
27029	778.102
27030	827.778
27031	814.150
27032	794.807
27033	818.106
27034	787.334
27035	819.425
27036	809.314
27037	775.025
27038	821.183
27039	801.401
27040	798.324
27041	815.469
27042	780.300
27043	815.908
27044	804.918
27045	773.706
27046	824.261
27047	799.643
27048	787.773
27049	811.952
27050	801.401
27051	865.144
27052	874.815
27053	844.043
27054	876.134
27055	843.603
27056	815.908
27057	818.985
27058	773.266
27059	798.324
27060	776.783
27061	777.223
27062	810.193
27063	804.918
27064	872.178
27065	854.594
27066	801.841
27067	832.613
27068	787.334
27069	798.324
27070	801.401
27071	771.508
27072	818.546
27073	808.435
27074	787.773
27075	827.778
27076	797.884
27077	805.358
27078	804.478
27079	769.750
27080	814.150
27081	808.875
27082	773.706
27083	814.589
27084	787.334
27085	801.841
27086	813.271
27087	790.851
27088	840.526
27089	822.942
27090	797.884
27091	833.053
27092	801.401
27093	847.560
27094	838.768
27095	801.841
27096	835.690
27097	801.401
27098	798.324
27099	796.126
27100	764.474
27101	808.875
27102	790.851
27103	766.672
27104	826.019
27105	811.952
27106	829.976
27107	822.502
27108	780.300
27109	829.976
27110	828.657
27111	808.875
27112	850.637
27113	829.536
27114	850.197
27115	857.671
27116	826.019
27117	861.627
27118	832.613
27119	794.807
27120	822.502
27121	787.334
27122	787.773
27123	783.817
27124	757.880
27125	805.797
27126	787.334
27127	766.672
27128	801.401
27129	783.817
27130	819.425
27131	837.009
27132	812.391
27133	848.439
27134	825.140
27135	803.599
27136	833.053
27137	794.368
27138	808.875
27139	796.126
27140	766.672
27141	818.985
27142	814.589
27143	801.841
27144	833.053
27145	797.884
27146	812.391
27147	803.160
27148	766.233
27149	822.502
27150	815.469
27151	801.841
27152	822.502
27153	783.817
27154	808.875
27155	804.039
27156	778.981
27157	840.526
27158	831.294
27159	815.908
27160	836.570
27161	776.783
27162	830.855
27163	822.502
27164	798.324
27165	815.469
27166	787.334
27167	815.908
27168	802.280
27169	765.354
27170	823.821
27171	822.502
27172	815.908
27173	857.671
27174	822.502
27175	822.942
27176	811.952
27177	773.266
27178	826.459
27179	823.381
27180	796.566
27181	848.879
27182	826.019
27183	824.700
27184	840.087
27185	801.401
27186	831.734
27187	816.787
27188	780.740
27189	826.019
27190	800.522
27191	787.773
27192	806.677
27193	772.387
27194	808.875
27195	800.082
27196	768.431
27197	818.106
27198	796.126
27199	787.773
27200	808.435
27201	772.387
27202	800.082
27203	784.696
27204	753.924
27205	817.667
27206	835.690
27207	837.888
27208	882.289
27209	840.087
27210	844.922
27211	829.976
27212	789.092
27213	829.976
27214	810.193
27215	780.740
27216	815.469
27217	787.334
27218	794.807
27219	801.401
27220	780.300
27221	840.526
27222	837.009
27223	812.391
27224	843.603
27225	808.435
27226	815.908
27227	813.710
27228	783.817
27229	832.613
27230	818.546
27231	773.706
27232	804.918
27233	773.266
27234	787.773
27235	793.049
27236	773.266
27237	837.009
27238	842.724
27239	815.908
27240	857.671
27241	836.570
27242	837.009
27243	843.603
27244	801.401
27245	837.009
27246	812.391
27247	770.189
27248	815.469
27249	787.334
27250	773.706
27251	794.368
27252	766.233
27253	805.358
27254	818.106
27255	789.092
27256	826.459
27257	799.203
27258	762.716
27259	815.469
27260	801.401
27261	822.942
27262	830.415
27263	796.126
27264	834.811
27265	822.502
27266	824.700
27267	835.690
27268	801.401
27269	838.768
27270	823.821
27271	781.179
27272	822.502
27273	787.334
27274	787.773
27275	833.053
27276	822.502
27277	845.801
27278	828.657
27279	786.015
27280	830.855
27281	813.710
27282	775.025
27283	815.469
27284	787.334
27285	791.290
27286	798.764
27287	771.508
27288	808.875
27289	801.841
27290	761.397
27291	811.952
27292	801.401
27293	808.875
27294	854.154
27295	794.807
27296	837.009
27297	834.811
27298	801.401
27299	858.110
27300	834.811
27301	801.841
27302	822.502
27303	787.334
27304	808.875
27305	808.435
27306	773.706
27307	817.667
27308	806.237
27309	780.740
27310	826.019
27311	811.952
27312	819.425
27313	829.536
27314	797.884
27315	829.976
27316	822.502
27317	787.773
27318	829.976
27319	808.435
27320	791.290
27321	818.985
27322	787.334
27323	804.039
27324	815.908
27325	794.368
27326	838.768
27327	821.183
27328	787.773
27329	818.985
27330	787.334
27331	793.928
27332	808.435
27333	782.059
27334	829.976
27335	831.734
27336	804.918
27337	859.869
27338	847.999
27339	817.667
27340	844.043
27341	801.401
27342	801.841
27343	808.435
27344	776.783
27345	812.391
27346	804.039
27347	766.672
27348	815.908
27349	799.643
27350	787.773
27351	815.469
27352	787.334
27353	801.841
27354	796.126
27355	758.320
27356	791.290
27357	791.290
27358	778.102
27359	849.318
27360	836.570
27361	829.976
27362	868.221
27363	843.603
27364	858.110
27365	843.603
27366	781.179
27367	838.328
27368	826.019
27369	815.908
27370	827.778
27371	784.696
27372	801.841
27373	801.841
27374	770.629
27375	819.425
27376	809.314
27377	777.223
27378	830.415
27379	826.019
27380	808.875
27381	815.908
27382	769.750
27383	801.841
27384	795.247
27385	767.112
27386	824.700
27387	818.985
27388	794.807
27389	837.009
27390	806.677
27391	808.875
27392	818.985
27393	799.643
27394	844.043
27395	831.734
27396	784.257
27397	817.227
27398	790.851
27399	766.672
27400	811.952
27401	799.643
27402	819.425
27403	828.657
27404	794.368
27405	826.459
27406	810.633
27407	773.266
27408	815.908
27409	799.643
27410	773.706
27411	813.710
27412	794.368
27413	815.908
27414	826.019
27415	787.334
27416	837.009
27417	834.372
27418	819.865
27419	886.685
27420	857.671
27421	819.425
27422	818.985
27423	773.266
27424	792.169
27425	794.807
27426	770.189
27427	820.304
27428	797.884
27429	773.706
27430	827.778
27431	809.314
27432	801.841
27433	817.227
27434	799.643
27435	851.077
27436	852.396
27437	813.710
27438	854.594
27439	831.294
27440	788.213
27441	824.261
27442	794.368
27443	777.223
27444	792.609
27445	766.233
27446	794.807
27447	789.971
27448	752.605
27449	801.401
27450	797.005
27451	775.464
27452	818.985
27453	787.334
27454	787.773
27455	811.952
27456	801.401
27457	858.110
27458	879.211
27459	852.835
27460	906.467
27461	881.849
27462	819.425
27463	834.811
27464	787.334
27465	787.773
27466	801.401
27467	773.266
27468	808.875
27469	780.300
27470	787.773
27471	801.401
27472	766.233
27473	787.773
27474	795.247
27475	780.300
27476	819.425
27477	809.754
27478	787.773
27479	847.560
27480	838.328
27481	802.720
27482	840.087
27483	803.160
27484	801.841
27485	810.193
27486	773.266
27487	801.841
27488	808.435
27489	787.334
27490	840.526
27491	840.526
27492	805.358
27493	850.637
27494	826.019
27495	798.324
27496	829.536
27497	801.401
27498	801.841
27499	805.358
27500	771.508
27501	815.908
27502	808.875
27503	774.146
27504	808.875
27505	798.324
27506	787.773
27507	851.077
27508	840.087
27509	815.908
27510	847.120
27511	808.435
27512	805.358
27513	815.469
27514	794.368
27515	828.217
27516	815.908
27517	764.474
27518	804.478
27519	817.667
27520	829.976
27521	899.873
27522	864.704
27523	812.391
27524	818.985
27525	764.474
27526	787.773
27527	787.773
27528	769.750
27529	815.908
27530	810.193
27531	775.904
27532	826.459
27533	811.952
27534	789.532
27535	821.623
27536	783.817
27537	773.706
27538	794.368
27539	766.233
27540	807.116
27541	828.217
27542	807.116
27543	868.661
27544	856.792
27545	812.391
27546	849.318
27547	822.502
27548	801.841
27549	827.778
27550	801.401
27551	815.908
27552	817.227
27553	780.300
27554	805.358
27555	801.401
27556	766.233
27557	819.425
27558	819.865
27559	798.324
27560	846.681
27561	825.580
27562	787.773
27563	826.019
27564	811.073
27565	815.908
27566	822.502
27567	780.300
27568	801.841
27569	792.609
27570	762.716
27571	801.841
27572	773.266
27573	787.773
27574	822.502
27575	815.469
27576	851.077
27577	856.792
27578	833.053
27579	872.178
27580	846.681
27581	773.706
27582	792.169
27583	764.474
27584	738.538
27585	785.575
27586	787.334
27587	815.908
27588	871.738
27589	857.671
27590	879.211
27591	854.154
27592	804.039
27593	826.459
27594	801.401
27595	766.672
27596	807.116
27597	781.179
27598	760.518
27599	801.401
27600	808.435
27601	847.560
27602	850.637
27603	815.469
27604	845.801
27605	819.865
27606	778.981
27607	808.875
27608	780.300
27609	752.605
27610	787.334
27611	766.233
27612	773.706
27613	790.851
27614	780.740
27615	829.976
27616	866.023
27617	864.704
27618	907.346
27619	863.386
27620	794.807
27621	824.261
27622	803.160
27623	773.706
27624	802.280
27625	786.455
27626	815.908
27627	812.831
27628	783.817
27629	829.976
27630	820.304
27631	784.257
27632	825.580
27633	811.073
27634	787.773
27635	824.261
27636	801.401
27637	787.773
27638	801.401
27639	780.300
27640	798.324
27641	801.401
27642	776.783
27643	819.425
27644	803.599
27645	764.914
27646	837.009
27647	842.285
27648	822.502
27649	872.617
27650	843.603
27651	829.976
27652	839.207
27653	813.710
27654	829.976
27655	807.995
27656	752.165
27657	784.257
27658	751.726
27659	724.470
27660	797.005
27661	826.019
27662	829.976
27663	857.671
27664	829.536
27665	844.043
27666	880.970
27667	850.637
27668	865.144
27669	847.120
27670	803.160
27671	840.526
27672	821.183
27673	781.619
27674	825.580
27675	787.334
27676	801.841
27677	806.677
27678	769.750
27679	812.391
27680	794.807
27681	751.726
27682	787.773
27683	773.266
27684	738.538
27685	775.025
27686	762.716
27687	759.639
27688	818.985
27689	822.502
27690	851.077
27691	873.497
27692	841.845
27693	847.560
27694	828.657
27695	787.334
27696	829.976
27697	828.657
27698	793.049
27699	831.734
27700	820.304
27701	788.653
27702	829.096
27703	792.609
27704	749.088
27705	794.368
27706	773.266
27707	773.706
27708	847.999
27709	843.603
27710	844.043
27711	854.154
27712	829.536
27713	851.077
27714	843.164
27715	792.609
27716	819.425
27717	802.720
27718	767.552
27719	819.425
27720	819.865
27721	798.324
27722	838.328
27723	808.435
27724	787.773
27725	787.334
27726	750.407
27727	770.189
27728	774.146
27729	759.199
27730	829.976
27731	843.603
27732	813.710
27733	844.043
27734	817.227
27735	774.585
27736	823.821
27737	815.469
27738	766.672
27739	815.469
27740	815.469
27741	810.633
27742	861.188
27743	843.603
27744	844.043
27745	850.637
27746	808.435
27747	815.908
27748	808.435
27749	773.266
27750	780.740
27751	741.175
27752	727.547
27753	812.391
27754	837.888
27755	844.043
27756	928.447
27757	915.259
27758	823.381
27759	811.073
27760	787.334
27761	787.773
27762	826.019
27763	787.334
27764	770.189
27765	784.257
27766	773.266
27767	815.908
27768	822.502
27769	789.092
27770	829.976
27771	821.183
27772	779.421
27773	815.469
27774	794.807
27775	766.672
27776	808.435
27777	776.783
27778	815.908
27779	811.512
27780	777.662
27781	829.976
27782	830.855
27783	804.918
27784	845.801
27785	820.744
27786	787.773
27787	820.744
27788	822.502
27789	829.976
27790	857.671
27791	826.898
27792	815.908
27793	805.797
27794	760.958
27795	789.532
27796	818.106
27797	828.657
27798	886.245
27799	847.560
27800	775.464
27801	801.401
27802	783.817
27803	766.672
27804	801.401
27805	773.266
27806	766.672
27807	790.411
27808	787.334
27809	851.077
27810	866.463
27811	817.227
27812	837.009
27813	815.908
27814	791.730
27815	846.241
27816	829.096
27817	791.290
27818	831.294
27819	811.952
27820	773.706
27821	799.203
27822	787.334
27823	796.566
27824	815.029
27825	783.817
27826	810.633
27827	800.082
27828	759.639
27829	805.358
27830	806.677
27831	794.807
27832	843.603
27833	815.469
27834	801.841
27835	811.952
27836	797.884
27837	844.043
27838	877.453
27839	861.627
27840	872.178
27841	844.043
27842	784.696
27843	816.787
27844	796.126
27845	759.639
27846	794.368
27847	766.233
27848	756.122
27849	818.985
27850	829.536
27851	865.144
27852	878.772
27853	815.469
27854	819.425
27855	804.918
27856	766.233
27857	791.290
27858	771.948
27859	717.437
27860	759.639
27861	778.542
27862	815.908
27863	921.414
27864	913.940
27865	844.043
27866	811.512
27867	759.199
27868	763.156
27869	794.368
27870	794.368
27871	829.976
27872	834.811
27873	801.401
27874	837.888
27875	826.459
27876	783.377
27877	826.459
27878	801.401
27879	803.599
27880	820.744
27881	731.064
27882	731.504
27883	746.890
27884	790.851
27885	908.225
27886	923.172
27887	870.419
27888	878.332
27889	817.227
27890	773.266
27891	832.174
27892	825.580
27893	798.324
27894	815.469
27895	787.334
27896	787.773
27897	822.502
27898	815.469
27899	829.976
27900	831.294
27901	787.334
27902	807.995
27903	793.488
27904	770.629
27905	822.942
27906	833.492
27907	785.575
27908	784.696
27909	771.508
27910	745.571
27911	808.435
27912	822.942
27913	808.875
27914	808.435
27915	801.401
27916	815.908
27917	843.603
27918	829.536
27919	844.043
27920	815.469
27921	773.266
27922	812.391
27923	812.391
27924	787.773
27925	840.526
27926	814.589
27927	787.773
27928	847.120
27929	850.637
27930	829.976
27931	854.154
27932	815.469
27933	798.324
27934	822.502
27935	794.368
27936	798.324
27937	801.401
27938	794.368
27939	822.942
27940	811.952
27941	790.851
27942	829.976
27943	810.193
27944	770.629
27945	819.425
27946	800.082
27947	746.451
27948	786.894
27949	783.817
27950	759.639
27951	813.271
27952	811.952
27953	808.875
27954	850.637
27955	801.401
27956	794.807
27957	842.724
27958	850.637
27959	875.695
27960	850.637
27961	797.884
27962	810.633
27963	770.629
27964	766.233
27965	829.976
27966	826.459
27967	800.082
27968	866.902
27969	829.096
27970	787.773
27971	840.087
27972	833.053
27973	815.908
27974	813.710
27975	773.266
27976	735.021
27977	794.368
27978	815.469
27979	851.077
27980	824.261
27981	731.064
27982	819.865
27983	843.603
27984	824.700
27985	840.087
27986	815.469
27987	822.942
27988	831.294
27989	794.368
27990	821.183
27991	804.478
27992	766.233
27993	780.740
27994	779.421
27995	748.649
27996	804.478
27997	817.667
27998	800.082
27999	837.888
28000	821.183
28001	791.290
28002	837.888
28003	827.778
28004	803.599
28005	838.328
28006	808.435
28007	801.841
28008	822.502
28009	804.918
28010	822.942
28011	814.589
28012	786.015
28013	831.734
28014	827.778
28015	759.199
28016	815.908
28017	829.976
28018	796.126
28019	855.473
28020	856.352
28021	823.821
28022	838.328
28023	787.334
28024	759.639
28025	797.884
28026	766.233
28027	787.773
28028	796.126
28029	776.783
28030	819.425
28031	836.570
28032	815.469
28033	854.594
28034	840.526
28035	796.126
28036	829.976
28037	814.150
28038	780.740
28039	829.976
28040	804.918
28041	787.773
28042	818.985
28043	794.368
28044	773.706
28045	815.469
28046	773.266
28047	787.773
28048	850.637
28049	854.154
28050	872.178
28051	844.483
28052	787.334
28053	805.358
28054	800.522
28055	765.354
28056	808.875
28057	787.773
28058	753.045
28059	811.073
28060	804.039
28061	787.773
28062	829.536
28063	827.778
28064	805.358
28065	847.120
28066	801.401
28067	808.875
28068	829.536
28069	794.368
28070	815.908
28071	826.898
28072	810.633
28073	837.009
28074	834.372
28075	801.401
28076	844.043
28077	822.502
28078	783.377
28079	847.560
28080	870.859
28081	829.976
28082	827.778
28083	755.682
28084	791.290
28085	790.851
28086	757.441
28087	798.324
28088	784.257
28089	752.165
28090	794.807
28091	818.985
28092	812.391
28093	847.560
28094	808.875
28095	763.156
28096	816.787
28097	808.435
28098	801.841
28099	843.603
28100	811.952
28101	801.841
28102	831.294
28103	808.875
28104	817.667
28105	822.502
28106	787.334
28107	801.841
28108	811.952
28109	787.334
28110	833.492
28111	812.391
28112	766.233
28113	817.667
28114	816.787
28115	810.633
28116	897.235
28117	877.893
28118	815.908
28119	818.985
28120	787.334
28121	787.773
28122	822.502
28123	851.077
28124	829.976
28125	812.831
28126	759.199
28127	759.639
28128	771.508
28129	755.682
28130	815.908
28131	818.985
28132	766.233
28133	810.633
28134	797.445
28135	782.059
28136	852.835
28137	853.275
28138	829.976
28139	851.956
28140	818.985
28141	787.773
28142	825.580
28143	804.918
28144	791.290
28145	829.536
28146	811.952
28147	801.841
28148	843.603
28149	829.536
28150	819.425
28151	824.261
28152	787.334
28153	808.875
28154	815.469
28155	785.575
28156	815.908
28157	826.019
28158	833.053
28159	865.144
28160	808.875
28161	773.706
28162	812.391
28163	793.928
28164	752.605
28165	778.542
28166	762.716
28167	731.504
28168	792.609
28169	782.059
28170	759.639
28171	807.556
28172	811.952
28173	812.391
28174	891.960
28175	864.704
28176	844.043
28177	826.019
28178	801.401
28179	844.043
28180	831.294
28181	822.942
28182	865.144
28183	832.613
28184	815.469
28185	849.318
28186	776.783
28187	759.639
28188	815.469
28189	794.368
28190	797.884
28191	798.324
28192	759.199
28193	791.290
28194	807.995
28195	787.334
28196	829.976
28197	833.053
28198	787.334
28199	826.459
28200	810.633
28201	780.740
28202	854.594
28203	845.801
28204	798.324
28205	835.251
28206	837.009
28207	844.483
28208	890.641
28209	843.603
28210	805.358
28211	833.053
28212	759.199
28213	738.538
28214	741.615
28215	702.930
28216	745.571
28217	800.522
28218	799.643
28219	837.009
28220	826.898
28221	783.817
28222	814.150
