#Date: 22-Nov-2017 01:07:12
#
#Memory Allocation:
#	Parameter memory: 276 bytes. p -> 0xb6f98000
#	Lookup table memory: 2000 bytes. l -> 0xb6f97000
#	Data memory: 1200 bytes. s -> 0xb6f96000
#
#Parameters:
#	Frq = 1000 (Hz)
#
#Filter Coefficients (N = 1):
#	b[0] : 0.01850891	a[0] : 1.00000000
#	b[1] : 0.01850891	a[1] : -0.96299744
#
# frame	emg_raw
7301	818.546
7302	780.740
7303	801.841
7304	810.193
7305	766.672
7306	810.193
7307	835.690
7308	815.908
7309	787.334
7310	801.401
7311	817.667
7312	787.334
7313	826.019
7314	844.043
7315	808.875
7316	833.053
7317	836.570
7318	815.908
7319	794.368
7320	802.280
7321	801.401
7322	769.310
7323	809.754
7324	828.657
7325	791.290
7326	820.744
7327	838.328
7328	826.019
7329	811.952
7330	822.502
7331	824.700
7332	789.971
7333	816.787
7334	829.976
7335	784.257
7336	809.314
7337	801.841
7338	787.334
7339	827.338
7340	791.290
7341	813.710
7342	812.391
7343	787.334
7344	831.294
7345	800.082
7346	810.193
7347	822.502
7348	812.391
7349	801.401
7350	829.536
7351	837.009
7352	801.401
7353	822.502
7354	831.294
7355	793.049
7356	815.469
7357	826.019
7358	794.807
7359	801.401
7360	818.985
7361	815.908
7362	791.290
7363	817.667
7364	829.976
7365	789.092
7366	815.908
7367	829.976
7368	794.807
7369	790.851
7370	815.908
7371	829.536
7372	787.334
7373	826.898
7374	794.368
7375	837.009
7376	801.401
7377	848.879
7378	801.401
7379	837.449
7380	787.334
7381	829.536
7382	775.904
7383	815.469
7384	773.266
7385	815.469
7386	776.344
7387	815.908
7388	761.837
7389	815.469
7390	784.257
7391	834.811
7392	805.358
7393	818.546
7394	808.875
7395	822.502
7396	844.043
7397	852.835
7398	844.043
7399	836.570
7400	822.942
7401	826.459
7402	808.875
7403	815.908
7404	801.841
7405	815.908
7406	815.908
7407	831.734
7408	822.942
7409	824.700
7410	801.841
7411	815.908
7412	788.213
7413	805.358
7414	787.773
7415	800.962
7416	787.773
7417	796.126
7418	775.464
7419	799.643
7420	794.807
7421	815.469
7422	791.290
7423	803.160
7424	773.706
7425	810.193
7426	793.049
7427	838.328
7428	808.875
7429	843.603
7430	791.290
7431	815.469
7432	773.706
7433	801.401
7434	765.793
7435	813.710
7436	773.706
7437	829.536
7438	780.300
7439	838.328
7440	799.643
7441	847.999
7442	801.401
7443	837.449
7444	799.643
7445	841.845
7446	794.368
7447	829.536
7448	776.783
7449	815.469
7450	775.025
7451	833.932
7452	808.435
7453	846.241
7454	801.401
7455	831.734
7456	801.401
7457	829.976
7458	808.435
7459	829.976
7460	815.469
7461	822.942
7462	811.073
7463	815.908
7464	797.884
7465	798.324
7466	808.435
7467	808.875
7468	815.908
7469	794.807
7470	801.401
7471	787.773
7472	818.985
7473	801.841
7474	836.570
7475	801.841
7476	832.613
7477	798.324
7478	843.603
7479	794.368
7480	829.536
7481	776.783
7482	818.985
7483	773.706
7484	822.502
7485	787.334
7486	844.043
7487	796.126
7488	824.261
7489	794.368
7490	829.976
7491	801.401
7492	829.976
7493	808.435
7494	829.976
7495	782.059
7496	830.415
7497	785.575
7498	827.778
7499	787.334
7500	826.459
7501	787.334
7502	815.908
7503	787.334
7504	822.942
7505	810.193
7506	829.976
7507	815.469
7508	819.425
7509	822.502
7510	815.908
7511	813.710
7512	794.368
7513	806.677
7514	794.807
7515	819.865
7516	791.290
7517	824.261
7518	798.324
7519	843.603
7520	801.841
7521	836.570
7522	764.914
7523	801.401
7524	761.837
7525	818.546
7526	783.817
7527	829.976
7528	808.435
7529	833.492
7530	815.469
7531	833.492
7532	820.744
7533	829.976
7534	831.294
7535	829.976
7536	829.976
7537	801.841
7538	812.831
7539	787.773
7540	801.401
7541	773.706
7542	793.488
7543	763.156
7544	811.952
7545	775.464
7546	818.985
7547	787.773
7548	829.536
7549	787.773
7550	833.492
7551	781.179
7552	827.778
7553	787.334
7554	836.570
7555	794.368
7556	832.613
7557	801.401
7558	829.976
7559	811.952
7560	819.425
7561	808.435
7562	808.875
7563	815.469
7564	805.358
7565	816.787
7566	796.566
7567	813.710
7568	789.532
7569	815.469
7570	775.464
7571	808.435
7572	775.025
7573	811.952
7574	767.112
7575	821.623
7576	783.817
7577	836.130
7578	787.334
7579	844.043
7580	829.536
7581	865.144
7582	843.603
7583	847.560
7584	827.778
7585	815.908
7586	806.677
7587	791.290
7588	804.918
7589	794.807
7590	808.435
7591	801.841
7592	815.908
7593	808.875
7594	836.570
7595	815.908
7596	833.053
7597	794.807
7598	812.391
7599	801.841
7600	817.227
7601	787.773
7602	810.193
7603	763.595
7604	807.116
7605	777.223
7606	818.985
7607	778.542
7608	825.140
7609	780.300
7610	831.734
7611	773.266
7612	801.841
7613	780.300
7614	829.976
7615	836.570
7616	847.560
7617	843.603
7618	815.908
7619	817.667
7620	787.773
7621	797.884
7622	780.740
7623	809.314
7624	787.773
7625	818.985
7626	789.971
7627	831.294
7628	789.971
7629	833.053
7630	797.884
7631	843.603
7632	794.368
7633	837.449
7634	794.368
7635	827.338
7636	796.126
7637	822.502
7638	808.875
7639	819.425
7640	811.952
7641	801.841
7642	804.039
7643	787.773
7644	808.875
7645	787.773
7646	829.976
7647	787.773
7648	796.126
7649	762.276
7650	822.502
7651	798.764
7652	841.845
7653	812.391
7654	864.704
7655	828.657
7656	866.463
7657	801.401
7658	826.459
7659	787.334
7660	819.425
7661	808.435
7662	819.425
7663	813.710
7664	822.942
7665	824.261
7666	808.875
7667	818.106
7668	787.773
7669	812.831
7670	779.421
7671	814.589
7672	773.706
7673	818.985
7674	776.783
7675	815.469
7676	771.068
7677	810.193
7678	785.575
7679	829.976
7680	815.469
7681	833.492
7682	815.469
7683	822.942
7684	829.096
7685	817.667
7686	815.908
7687	791.290
7688	810.633
7689	787.773
7690	810.193
7691	778.981
7692	806.677
7693	765.354
7694	822.502
7695	801.401
7696	859.869
7697	818.985
7698	846.241
7699	764.474
7700	815.469
7701	779.421
7702	824.261
7703	780.300
7704	822.942
7705	790.851
7706	829.976
7707	808.435
7708	829.976
7709	815.469
7710	815.908
7711	833.492
7712	822.942
7713	844.043
7714	808.875
7715	815.469
7716	759.639
7717	801.401
7718	783.817
7719	836.570
7720	787.773
7721	837.009
7722	801.401
7723	840.526
7724	822.502
7725	837.009
7726	832.174
7727	815.908
7728	815.469
7729	794.807
7730	815.469
7731	787.773
7732	815.469
7733	775.025
7734	818.985
7735	773.266
7736	813.710
7737	772.387
7738	815.469
7739	787.334
7740	821.183
7741	815.469
7742	822.942
7743	822.942
7744	808.875
7745	821.623
7746	794.368
7747	821.183
7748	791.290
7749	822.502
7750	789.532
7751	833.053
7752	783.817
7753	826.898
7754	787.334
7755	825.140
7756	797.884
7757	822.942
7758	811.952
7759	815.908
7760	809.754
7761	801.841
7762	815.908
7763	796.566
7764	826.019
7765	789.532
7766	827.778
7767	784.696
7768	827.778
7769	773.266
7770	798.324
7771	759.199
7772	824.700
7773	836.570
7774	879.211
7775	868.221
7776	837.009
7777	821.183
7778	801.841
7779	815.469
7780	787.773
7781	808.435
7782	768.870
7783	808.435
7784	767.991
7785	815.469
7786	787.334
7787	827.338
7788	801.401
7789	822.942
7790	815.469
7791	822.942
7792	826.459
7793	808.875
7794	817.227
7795	798.324
7796	817.227
7797	787.773
7798	826.019
7799	786.455
7800	834.811
7801	767.991
7802	810.193
7803	780.300
7804	815.469
7805	776.783
7806	833.053
7807	801.401
7808	837.009
7809	811.952
7810	826.459
7811	813.710
7812	811.073
7813	815.908
7814	801.841
7815	817.227
7816	789.532
7817	822.502
7818	782.938
7819	829.536
7820	786.015
7821	827.778
7822	799.643
7823	833.492
7824	818.985
7825	829.976
7826	821.623
7827	801.841
7828	814.150
7829	787.773
7830	812.831
7831	774.585
7832	813.710
7833	778.542
7834	826.459
7835	780.300
7836	829.976
7837	806.677
7838	829.976
7839	821.623
7840	819.425
7841	809.754
7842	787.773
7843	784.696
7844	748.209
7845	798.764
7846	794.807
7847	871.738
7848	845.362
7849	886.245
7850	829.096
7851	845.801
7852	817.667
7853	816.348
7854	808.435
7855	794.807
7856	800.962
7857	787.773
7858	811.512
7859	787.773
7860	818.985
7861	782.498
7862	833.053
7863	794.368
7864	835.251
7865	801.401
7866	829.976
7867	808.435
7868	815.908
7869	806.677
7870	787.773
7871	801.841
7872	787.773
7873	806.677
7874	780.740
7875	801.401
7876	748.649
7877	815.469
7878	801.401
7879	873.057
7880	850.637
7881	872.178
7882	849.758
7883	833.492
7884	818.985
7885	794.807
7886	803.160
7887	780.740
7888	808.435
7889	775.464
7890	815.469
7891	776.783
7892	830.415
7893	801.401
7894	831.734
7895	808.435
7896	817.667
7897	813.710
7898	808.875
7899	815.908
7900	801.841
7901	818.985
7902	778.981
7903	815.469
7904	759.639
7905	804.918
7906	780.740
7907	815.469
7908	784.696
7909	840.087
7910	801.401
7911	856.352
7912	829.536
7913	833.492
7914	807.995
7915	798.324
7916	807.995
7917	801.841
7918	815.469
7919	778.981
7920	815.469
7921	784.257
7922	841.845
7923	801.401
7924	847.999
7925	804.918
7926	833.932
7927	808.435
7928	815.908
7929	801.401
7930	791.290
7931	808.875
7932	787.773
7933	813.710
7934	778.542
7935	809.314
7936	759.199
7937	814.589
7938	778.542
7939	815.908
7940	794.368
7941	829.976
7942	831.294
7943	844.043
7944	851.077
7945	829.536
7946	848.879
7947	815.908
7948	841.845
7949	795.686
7950	833.053
7951	783.817
7952	821.183
7953	776.783
7954	814.150
7955	801.401
7956	798.324
7957	792.169
7958	794.807
7959	814.150
7960	796.566
7961	820.744
7962	780.740
7963	826.019
7964	789.092
7965	850.197
7966	815.469
7967	829.976
7968	797.884
7969	805.358
7970	815.908
7971	801.841
7972	813.271
7973	791.290
7974	817.227
7975	787.773
7976	836.570
7977	794.368
7978	837.009
7979	794.368
7980	829.976
7981	808.435
7982	829.976
7983	824.261
7984	815.908
7985	815.908
7986	787.773
7987	811.073
7988	778.981
7989	826.019
7990	787.334
7991	835.251
7992	794.368
7993	829.976
7994	815.469
7995	829.976
7996	833.492
7997	819.425
7998	829.976
7999	798.324
8000	821.623
8001	780.740
8002	811.952
8003	760.958
8004	810.633
8005	773.266
8006	813.271
8007	757.441
8008	815.469
8009	794.368
8010	837.009
8011	808.435
8012	791.290
8013	801.841
8014	815.908
8015	860.308
8016	837.009
8017	854.154
8018	790.851
8019	822.502
8020	773.266
8021	807.116
8022	780.300
8023	801.841
8024	804.478
8025	801.841
8026	818.985
8027	798.324
8028	833.053
8029	796.566
8030	843.603
8031	790.851
8032	831.294
8033	799.643
8034	844.043
8035	831.294
8036	822.942
8037	825.140
8038	815.908
8039	833.053
8040	798.324
8041	822.502
8042	780.300
8043	818.985
8044	776.783
8045	811.952
8046	801.401
8047	819.425
8048	815.469
8049	798.324
8050	808.875
8051	791.290
8052	818.985
8053	787.773
8054	829.536
8055	780.300
8056	826.019
8057	787.334
8058	826.459
8059	811.952
8060	822.942
8061	817.227
8062	799.643
8063	815.469
8064	794.807
8065	831.294
8066	785.136
8067	808.435
8068	759.199
8069	822.942
8070	815.469
8071	858.110
8072	840.087
8073	829.976
8074	823.821
8075	794.807
8076	815.029
8077	775.464
8078	808.435
8079	780.740
8080	843.603
8081	813.710
8082	840.526
8083	813.710
8084	808.875
8085	805.358
8086	787.773
8087	801.401
8088	775.464
8089	818.985
8090	775.025
8091	822.063
8092	787.334
8093	829.976
8094	818.985
8095	815.908
8096	815.908
8097	805.358
8098	840.087
8099	808.875
8100	839.207
8101	792.609
8102	836.570
8103	794.368
8104	816.348
8105	787.334
8106	801.841
8107	794.368
8108	787.773
8109	787.334
8110	815.908
8111	822.502
8112	805.358
8113	831.294
8114	812.391
8115	843.603
8116	794.368
8117	813.271
8118	745.132
8119	801.841
8120	821.183
8121	851.077
8122	855.473
8123	822.942
8124	820.744
8125	777.223
8126	820.744
8127	775.464
8128	815.469
8129	780.740
8130	818.985
8131	791.730
8132	843.603
8133	801.401
8134	829.976
8135	804.918
8136	808.875
8137	801.841
8138	787.773
8139	810.193
8140	778.981
8141	822.502
8142	766.233
8143	815.469
8144	794.368
8145	840.526
8146	836.570
8147	844.043
8148	844.922
8149	815.908
8150	817.227
8151	773.706
8152	816.348
8153	784.257
8154	847.560
8155	815.469
8156	837.009
8157	815.469
8158	808.875
8159	807.116
8160	787.773
8161	811.952
8162	776.344
8163	817.227
8164	780.740
8165	826.459
8166	797.884
8167	815.908
8168	812.831
8169	801.841
8170	819.865
8171	777.223
8172	810.193
8173	780.300
8174	833.053
8175	797.884
8176	821.183
8177	810.193
8178	822.942
8179	834.372
8180	801.841
8181	810.193
8182	754.363
8183	801.401
8184	783.817
8185	833.932
8186	808.435
8187	835.690
8188	824.261
8189	844.043
8190	832.613
8191	808.875
8192	816.348
8193	777.223
8194	813.710
8195	741.615
8196	804.918
8197	797.884
8198	866.902
8199	871.738
8200	872.178
8201	856.792
8202	805.358
8203	811.952
8204	764.914
8205	813.710
8206	778.542
8207	827.338
8208	801.401
8209	822.942
8210	817.227
8211	805.358
8212	806.677
8213	815.908
8214	808.875
8215	787.773
8216	804.039
8217	764.914
8218	827.778
8219	811.952
8220	844.043
8221	810.193
8222	819.425
8223	811.952
8224	798.324
8225	811.073
8226	780.740
8227	815.469
8228	762.716
8229	794.368
8230	769.750
8231	826.459
8232	829.536
8233	837.009
8234	835.251
8235	808.875
8236	822.942
8237	787.773
8238	822.502
8239	766.233
8240	827.338
8241	808.435
8242	787.773
8243	799.643
8244	844.043
8245	878.772
8246	864.704
8247	873.497
8248	813.271
8249	833.053
8250	773.266
8251	813.271
8252	794.368
8253	791.290
8254	789.092
8255	791.290
8256	804.918
8257	789.532
8258	857.671
8259	835.690
8260	868.661
8261	840.526
8262	831.734
8263	813.710
8264	763.156
8265	769.750
8266	761.397
8267	829.536
8268	793.488
8269	823.821
8270	788.213
8271	801.841
8272	801.401
8273	794.807
8274	815.469
8275	770.189
8276	815.469
8277	787.334
8278	847.560
8279	826.019
8280	844.043
8281	820.744
8282	801.841
8283	799.643
8284	766.672
8285	811.952
8286	773.266
8287	825.140
8288	729.745
8289	773.706
8290	822.502
8291	872.178
8292	880.091
8293	829.976
8294	831.294
8295	741.615
8296	796.566
8297	822.502
8298	865.144
8299	875.255
8300	854.594
8301	861.188
8302	812.391
8303	815.469
8304	777.223
8305	841.845
8306	808.435
8307	815.908
8308	787.334
8309	773.706
8310	782.498
8311	745.571
8312	787.334
8313	732.383
8314	776.783
8315	758.320
8316	815.469
8317	787.334
8318	820.304
8319	773.266
8320	823.381
8321	869.540
8322	865.144
8323	860.308
8324	796.566
8325	745.132
8326	731.064
8327	844.043
8328	857.671
8329	865.144
8330	830.415
8331	805.358
8332	815.469
8333	768.431
8334	808.435
8335	772.387
8336	824.700
8337	822.502
8338	847.560
8339	829.536
8340	806.237
8341	782.059
8342	736.779
8343	850.637
8344	850.637
8345	893.279
8346	857.671
8347	854.594
8348	837.009
8349	801.841
8350	801.401
8351	761.397
8352	797.884
8353	761.837
8354	800.082
8355	759.199
8356	719.195
8357	751.286
8358	801.841
8359	840.966
8360	798.324
8361	826.019
8362	763.156
8363	826.898
8364	827.778
8365	858.110
8366	815.469
8367	794.807
8368	848.439
8369	834.372
8370	847.560
8371	739.856
8372	808.435
8373	841.845
8374	866.902
8375	815.469
8376	777.223
8377	781.179
8378	755.682
8379	801.401
8380	783.817
8381	850.197
8382	840.087
8383	854.594
8384	834.811
8385	817.667
8386	824.700
8387	766.672
8388	807.116
8389	787.334
8390	827.338
8391	780.300
8392	829.976
8393	841.845
8394	815.908
8395	804.918
8396	822.063
8397	869.980
8398	804.918
8399	806.237
8400	759.199
8401	794.807
8402	790.851
8403	787.773
8404	801.401
8405	794.807
8406	840.087
8407	806.677
8408	871.299
8409	829.536
8410	815.908
8411	798.324
8412	801.841
8413	810.193
8414	787.773
8415	757.441
8416	675.234
8417	774.146
8418	815.908
8419	885.806
8420	808.875
8421	754.363
8422	801.401
8423	886.245
8424	842.724
8425	880.970
8426	860.308
8427	822.942
8428	865.144
8429	808.435
8430	830.415
8431	787.334
8432	837.009
8433	814.589
8434	763.156
8435	745.132
8436	759.639
8437	829.536
8438	804.918
8439	834.372
8440	782.938
8441	805.358
8442	813.710
8443	815.908
8444	833.053
8445	801.841
8446	757.880
8447	703.809
8448	852.396
8449	870.859
8450	903.829
8451	843.603
8452	815.908
8453	807.116
8454	787.773
8455	792.609
8456	765.793
8457	857.671
8458	864.704
8459	928.447
8460	618.525
8461	656.331
8462	873.057
8463	907.346
8464	896.356
8465	808.875
8466	797.005
8467	745.132
8468	767.552
8469	759.199
8470	780.740
8471	795.247
8472	763.156
8473	769.750
8474	778.981
8475	876.134
8476	836.570
8477	845.801
8478	788.213
8479	837.009
8480	953.065
8481	917.897
8482	854.154
8483	778.981
8484	885.806
8485	804.918
8486	798.324
8487	731.064
8488	724.470
8489	738.538
8490	759.639
8491	801.401
8492	749.528
8493	718.755
8494	731.064
8495	886.245
8496	892.839
8497	914.380
8498	864.704
8499	819.425
8500	782.059
8501	767.552
8502	840.087
8503	826.459
8504	879.651
8505	822.502
8506	833.492
8507	836.130
8508	801.841
8509	815.469
8510	775.025
8511	856.792
8512	773.266
8513	766.672
8514	491.919
8515	640.066
8516	890.202
8517	949.548
8518	933.283
8519	844.043
8520	854.154
8521	821.623
8522	840.087
8523	787.334
8524	822.502
8525	801.401
8526	815.908
8527	787.773
8528	801.401
8529	847.120
8530	805.797
8531	861.188
8532	804.918
8533	837.009
8534	826.019
8535	791.290
8536	775.025
8537	766.233
8538	838.328
8539	794.368
8540	826.898
8541	780.300
8542	791.290
8543	792.609
8544	773.706
8545	797.005
8546	787.773
8547	848.879
8548	829.536
8549	774.585
8550	794.368
8551	946.031
8552	931.525
8553	844.043
8554	800.962
8555	735.900
8556	787.334
8557	748.649
8558	773.706
8559	780.300
8560	815.908
8561	808.875
8562	777.223
8563	822.502
8564	789.092
8565	836.570
8566	794.368
8567	822.942
8568	814.589
8569	815.908
8570	840.526
8571	780.740
8572	811.952
8573	786.455
8574	850.637
8575	828.657
8576	837.009
8577	833.932
8578	815.908
8579	826.019
8580	787.773
8581	815.469
8582	755.682
8583	837.009
8584	822.502
8585	801.841
8586	787.773
8587	731.504
8588	810.193
8589	800.962
8590	857.671
8591	808.435
8592	851.077
8593	826.019
8594	822.942
8595	826.898
8596	801.841
8597	836.570
8598	814.150
8599	866.463
8600	829.536
8601	865.144
8602	841.845
8603	858.110
8604	784.257
8605	735.021
8606	811.952
8607	782.938
8608	764.474
8609	583.357
8610	627.757
8611	928.008
8612	965.814
8613	869.100
8614	791.290
8615	797.445
8616	780.300
8617	822.502
8618	755.682
8619	801.841
8620	836.570
8621	822.063
8622	811.952
8623	822.942
8624	839.207
8625	815.908
8626	831.294
8627	790.851
8628	843.603
8629	787.334
8630	798.324
8631	782.938
8632	759.639
8633	796.126
8634	781.179
8635	836.570
8636	801.401
8637	845.362
8638	841.845
8639	794.807
8640	789.532
8641	791.290
8642	847.120
8643	799.643
8644	830.415
8645	861.188
8646	900.312
8647	876.134
8648	844.043
8649	835.251
8650	801.841
8651	720.514
8652	786.015
8653	906.907
8654	836.570
8655	780.740
8656	775.904
8657	766.672
8658	788.653
8659	731.504
8660	775.025
8661	731.064
8662	685.785
8663	776.783
8664	815.908
8665	930.645
8666	949.548
8667	899.873
8668	822.502
8669	863.825
8670	797.884
8671	809.754
8672	776.783
8673	745.571
8674	746.890
8675	745.571
8676	798.764
8677	787.334
8678	850.637
8679	864.704
8680	854.594
8681	811.952
8682	752.605
8683	553.903
8684	710.403
8685	910.423
8686	872.617
8687	885.806
8688	843.603
8689	875.695
8690	857.671
8691	829.976
8692	873.497
8693	829.976
8694	864.704
8695	813.710
8696	844.043
8697	801.401
8698	794.807
8699	784.257
8700	759.639
8701	783.817
8702	755.243
8703	811.952
8704	829.976
8705	878.772
8706	751.726
8707	629.515
8708	811.952
8709	910.863
8710	684.026
8711	569.729
8712	942.515
8713	1026.479
8714	872.178
8715	880.530
8716	854.594
8717	878.772
8718	794.368
8719	787.773
8720	764.474
8721	803.599
8722	807.556
8723	724.470
8724	894.598
8725	977.244
8726	925.370
8727	797.884
8728	808.875
8729	786.455
8730	742.054
8731	736.340
8732	703.369
8733	764.035
8734	495.436
8735	680.510
8736	898.554
8737	901.192
8738	872.178
8739	808.875
8740	843.603
8741	818.985
8742	837.009
8743	741.615
8744	865.144
8745	912.621
8746	863.386
8747	854.154
8748	778.542
8749	826.019
8750	787.334
8751	829.976
8752	815.469
8753	829.976
8754	634.791
8755	492.358
8756	724.031
8757	869.100
8758	910.423
8759	829.536
8760	804.918
8761	815.469
8762	886.245
8763	928.008
8764	872.178
8765	980.760
8766	912.182
8767	910.863
8768	843.603
8769	802.280
8770	868.221
8771	805.358
8772	778.542
8773	753.045
8774	801.401
8775	755.682
8776	777.223
8777	723.591
8778	675.234
8779	675.234
8780	661.167
8781	736.340
8782	757.441
8783	754.363
8784	759.199
8785	960.099
8786	976.364
8787	730.625
8788	854.154
8789	720.514
8790	865.144
8791	977.244
8792	967.133
8793	851.956
8794	787.773
8795	788.213
8796	759.639
8797	801.401
8798	799.643
8799	837.888
8800	801.401
8801	805.358
8802	795.686
8803	759.639
8804	737.219
8805	620.284
8806	818.985
8807	959.659
8808	984.717
8809	885.806
8810	851.077
8811	829.976
